File: iv/box00117_A1_1.txt
12/03/2018
18:42
\\ws7.lboro.ac.uk\WS-PVMAD\Data\J-V\Lewis\2018-03-12\box00107_A1_1.txt
Measurement Time (secs)		1.000000E+1
Number of Points		1.000000E+2
Fraction of points to  use in calculating rough parameters		5.000000E+0
Cell Area		2.500000E-1
Irradiance		1.000000E+3
Voltage Start (V) 		-2.000000E-1
Voltage Stop (V)		8.000000E-1
Current Compliance		1.500000E-2
4 Wire		1.000000E+0
Voltage Settling Tiime (ms)		1.000000E+1
Voc (V)		3.620816E-1
Jsc (mA/cm²)		-3.035221E+1
FF		6.197033E-1
Efficiency (%)		6.810523E+0
Isc (mA)		-7.588052E+0
Vmp (V)		2.645000E-1
Imp (mA)		-6.437168E+0
Pmp (W)		1.702631E-3
Rs (Ohms)		1.111142E-1
Rsh (Ohms)		1.645578E+4
IV Data
-0.2	-0.00765784
-0.19	-0.00765881
-0.18	-0.00765841
-0.1695	-0.00765593
-0.1595	-0.00765622
-0.1495	-0.00765619
-0.1395	-0.00764847
-0.1295	-0.00764002
-0.119	-0.00763506
-0.109	-0.00763553
-0.099	-0.00763455
-0.089	-0.00763245
-0.079	-0.00762932
-0.0685	-0.00762652
-0.0585	-0.00762229
-0.0485	-0.00761756
-0.0385	-0.00760867
-0.0285	-0.00760025
-0.018	-0.00759546
-0.008	-0.00759053
0.002	-0.00758933
0.012	-0.00758317
0.022	-0.00757742
0.0325	-0.00757672
0.0425	-0.00757551
0.0525	-0.0075691
0.0625	-0.00756092
0.0725	-0.00755258
0.083	-0.00754583
0.093	-0.00753535
0.103	-0.00752729
0.113	-0.00752048
0.123	-0.00750858
0.1335	-0.0074982
0.1435	-0.00748621
0.1535	-0.0074665
0.1635	-0.00743756
0.1735	-0.00740008
0.184	-0.00735846
0.194	-0.0073141
0.204	-0.00725955
0.214	-0.00718908
0.224	-0.00709724
0.2345	-0.0069807
0.2445	-0.00683771
0.2545	-0.00665982
0.2645	-0.00643717
0.2745	-0.00615695
0.285	-0.00580971
0.295	-0.00540197
0.305	-0.00491431
0.315	-0.00433382
0.3255	-0.00361094
0.3355	-0.00281684
0.3455	-0.00190416
0.3555	-0.000850484
0.3655	0.000310838
0.376	0.00165968
0.386	0.00306211
0.396	0.00457971
0.406	0.00620927
0.416	0.00797932
0.4265	0.00991877
0.4365	0.011858
0.4465	0.0138869
0.4565	0.015
0.4665	0.0150002
0.477	0.0150001
0.487	0.0150001
0.497	0.0150002
0.507	0.0150002
0.517	0.0150003
0.5275	0.0150001
0.5375	0.0150003
0.5475	0.0150002
0.5575	0.0150002
0.5675	0.0150001
0.578	0.0150001
0.588	0.015
0.598	0.0150001
0.608	0.0150001
0.618	0.0150001
0.6285	0.0150002
0.6385	0.0150002
0.6485	0.0150002
0.6585	0.0150004
0.6685	0.0150002
0.679	0.0150002
0.689	0.0150002
0.699	0.0150002
0.709	0.0150002
0.719	0.0150001
0.7295	0.0150001
0.7395	0.0150002
0.7495	0.0150003
0.7595	0.0150001
0.7695	0.0150002
0.78	0.0150002
0.79	0.0150003
0.8	0.0150003